#K-Path(1/A) Energy-Level(eV)
# NKPTS & NBANDS: 120  16
# Band-Index    1
   0.00000    -19.513560
   0.03769    -19.509686
   0.07538    -19.498038
   0.11307    -19.478649
   0.15076    -19.451497
   0.18844    -19.416612
   0.22613    -19.373976
   0.26382    -19.323618
   0.30151    -19.265554
   0.33920    -19.199790
   0.37689    -19.126350
   0.41458    -19.045249
   0.45227    -18.956514
   0.48996    -18.860151
   0.52764    -18.756205
   0.56533    -18.644710
   0.60302    -18.525710
   0.64071    -18.399227
   0.67840    -18.265289
   0.71609    -18.123997
   0.75378    -17.975347
   0.79147    -17.819420
   0.82916    -17.656294
   0.86684    -17.486034
   0.90453    -17.308746
   0.94222    -17.124511
   0.97991    -16.933472
   1.01760    -16.735787
   1.05529    -16.531622
   1.09298    -16.321199
   1.13067    -16.104842
   1.16836    -15.882987
   1.20604    -15.656249
   1.24373    -15.425588
   1.28142    -15.192599
   1.31911    -14.960085
   1.35680    -14.733473
   1.39449    -14.524722
   1.43218    -14.361093
   1.46987    -14.294381
   1.46987    -14.294381
   1.49170    -14.293265
   1.51353    -14.289926
   1.53537    -14.284350
   1.55720    -14.276549
   1.57903    -14.266506
   1.60087    -14.254238
   1.62270    -14.239754
   1.64453    -14.223022
   1.66637    -14.204055
   1.68820    -14.182861
   1.71003    -14.159443
   1.73187    -14.133797
   1.75370    -14.105936
   1.77553    -14.075849
   1.79737    -14.043522
   1.81920    -14.008976
   1.84103    -13.972207
   1.86287    -13.933218
   1.88470    -13.892039
   1.90653    -13.848605
   1.92837    -13.802973
   1.95020    -13.755110
   1.97203    -13.705054
   1.99387    -13.652781
   2.01570    -13.598303
   2.03753    -13.541618
   2.05937    -13.482737
   2.08120    -13.421654
   2.10303    -13.358390
   2.12487    -13.292923
   2.14670    -13.225268
   2.16853    -13.155447
   2.19037    -13.083480
   2.21220    -13.009354
   2.23403    -12.933069
   2.25587    -12.854665
   2.27770    -12.774172
   2.29953    -12.691904
   2.32137    -12.610432
   2.32137    -12.610432
   2.36496    -12.776847
   2.40856    -13.015454
   2.45215    -13.281664
   2.49575    -13.563377
   2.53934    -13.852913
   2.58294    -14.145271
   2.62653    -14.437175
   2.67013    -14.726361
   2.71372    -15.011256
   2.75732    -15.290733
   2.80091    -15.563878
   2.84451    -15.830039
   2.88810    -16.088665
   2.93170    -16.339346
   2.97529    -16.581737
   3.01889    -16.815523
   3.06248    -17.040476
   3.10608    -17.256384
   3.14967    -17.463055
   3.19327    -17.660301
   3.23686    -17.848063
   3.28046    -18.026175
   3.32405    -18.194571
   3.36765    -18.353129
   3.41124    -18.501771
   3.45484    -18.640406
   3.49843    -18.768999
   3.54203    -18.887493
   3.58562    -18.995830
   3.62922    -19.093966
   3.67281    -19.181848
   3.71641    -19.259484
   3.76000    -19.326820
   3.80360    -19.383839
   3.84719    -19.430516
   3.89079    -19.466833
   3.93438    -19.492793
   3.97798    -19.508368
   4.02157    -19.513560
 
# Band-Index    2
   4.02157     -7.612297
   3.97798     -7.606094
   3.93438     -7.587487
   3.89079     -7.556485
   3.84719     -7.513124
   3.80360     -7.457435
   3.76000     -7.389461
   3.71641     -7.309254
   3.67281     -7.216883
   3.62922     -7.112444
   3.58562     -6.995996
   3.54203     -6.867674
   3.49843     -6.727596
   3.45484     -6.575903
   3.41124     -6.412752
   3.36765     -6.316796
   3.32405     -6.635735
   3.28046     -6.954110
   3.23686     -7.270846
   3.19327     -7.584952
   3.14967     -7.895636
   3.10608     -8.202132
   3.06248     -8.503845
   3.01889     -8.800276
   2.97529     -9.090881
   2.93170     -9.375348
   2.88810     -9.653298
   2.84451     -9.924437
   2.80091    -10.188499
   2.75732    -10.445216
   2.71372    -10.694401
   2.67013    -10.935910
   2.62653    -11.169543
   2.58294    -11.395171
   2.53934    -11.612674
   2.49575    -11.821996
   2.45215    -12.022900
   2.40856    -12.215161
   2.36496    -12.397845
   2.32137    -12.541797
   2.32137    -12.541797
   2.29953    -12.467546
   2.27770    -12.406939
   2.25587    -12.363358
   2.23403    -12.336581
   2.21220    -12.325266
   2.19037    -12.327352
   2.16853    -12.340486
   2.14670    -12.362392
   2.12487    -12.391057
   2.10303    -12.424728
   2.08120    -12.461983
   2.05937    -12.501749
   2.03753    -12.543107
   2.01570    -12.585341
   1.99387    -12.627892
   1.97203    -12.670305
   1.95020    -12.712216
   1.92837    -12.753324
   1.90653    -12.793377
   1.88470    -12.832224
   1.86287    -12.869643
   1.84103    -12.905566
   1.81920    -12.939838
   1.79737    -12.972372
   1.77553    -13.003084
   1.75370    -13.031883
   1.73187    -13.058754
   1.71003    -13.083610
   1.68820    -13.106447
   1.66637    -13.127190
   1.64453    -13.145813
   1.62270    -13.162313
   1.60087    -13.176613
   1.57903    -13.188770
   1.55720    -13.198743
   1.53537    -13.206493
   1.51353    -13.212046
   1.49170    -13.215387
   1.46987    -13.216499
   1.46987    -13.216499
   1.43218    -13.144091
   1.39449    -12.963175
   1.35680    -12.725560
   1.31911    -12.458584
   1.28142    -12.174290
   1.24373    -11.878211
   1.20604    -11.573338
   1.16836    -11.261421
   1.13067    -10.943560
   1.09298    -10.620701
   1.05529    -10.293455
   1.01760     -9.962514
   0.97991     -9.628385
   0.94222     -9.291700
   0.90453     -8.953090
   0.86684     -8.613057
   0.82916     -8.272366
   0.79147     -7.931700
   0.75378     -7.591816
   0.71609     -7.253567
   0.67840     -6.917875
   0.64071     -6.585743
   0.60302     -6.442218
   0.56533     -6.581958
   0.52764     -6.713218
   0.48996     -6.835871
   0.45227     -6.949820
   0.41458     -7.054934
   0.37689     -7.151145
   0.33920     -7.238390
   0.30151     -7.316605
   0.26382     -7.385732
   0.22613     -7.445734
   0.18844     -7.496569
   0.15076     -7.538198
   0.11307     -7.570604
   0.07538     -7.593760
   0.03769     -7.607668
   0.00000     -7.612297
 
# Band-Index    3
   0.00000     -3.013092
   0.03769     -3.029122
   0.07538     -3.077692
   0.11307     -3.158174
   0.15076     -3.269213
   0.18844     -3.409142
   0.22613     -3.576028
   0.26382     -3.767774
   0.30151     -3.982166
   0.33920     -4.216940
   0.37689     -4.469905
   0.41458     -4.738898
   0.45227     -5.021910
   0.48996     -5.317035
   0.52764     -5.622536
   0.56533     -5.936795
   0.60302     -6.258303
   0.64071     -6.294139
   0.67840     -6.137877
   0.71609     -5.973646
   0.75378     -5.801659
   0.79147     -5.622173
   0.82916     -5.435512
   0.86684     -5.415484
   0.90453     -5.524285
   0.94222     -5.627433
   0.97991     -5.724627
   1.01760     -5.815590
   1.05529     -5.900102
   1.09298     -5.977905
   1.13067     -6.048805
   1.16836     -6.112656
   1.20604     -6.169303
   1.24373     -6.218626
   1.28142     -6.260522
   1.31911     -6.294926
   1.35680     -6.321748
   1.39449     -6.340946
   1.43218     -6.352483
   1.46987     -6.356330
   1.46987     -6.356330
   1.49170     -6.362230
   1.51353     -6.379907
   1.53537     -6.409195
   1.55720     -6.449886
   1.57903     -6.501684
   1.60087     -6.564191
   1.62270     -6.636982
   1.64453     -6.719545
   1.66637     -6.811323
   1.68820     -6.911795
   1.71003     -7.020362
   1.73187     -7.136404
   1.75370     -7.259311
   1.77553     -7.388459
   1.79737     -7.523248
   1.81920     -7.663111
   1.84103     -7.807416
   1.86287     -7.955595
   1.88470     -8.107083
   1.90653     -8.261251
   1.92837     -8.417601
   1.95020     -8.575496
   1.97203     -8.734363
   1.99387     -8.893558
   2.01570     -9.052459
   2.03753     -9.210286
   2.05937     -9.366195
   2.08120     -9.519225
   2.10303     -9.668295
   2.12487     -9.812032
   2.14670     -9.948819
   2.16853    -10.076797
   2.19037    -10.193760
   2.21220    -10.297239
   2.23403    -10.384811
   2.25587    -10.454218
   2.27770    -10.503892
   2.29953    -10.533390
   2.32137    -10.543227
   2.32137    -10.543227
   2.36496    -10.510298
   2.40856    -10.422622
   2.45215    -10.295305
   2.49575    -10.139295
   2.53934     -9.961847
   2.58294     -9.767739
   2.62653     -9.560131
   2.67013     -9.341259
   2.71372     -9.112748
   2.75732     -8.875924
   2.80091     -8.631842
   2.84451     -8.381466
   2.88810     -8.125681
   2.93170     -7.865342
   2.97529     -7.601278
   3.01889     -7.334340
   3.06248     -7.065418
   3.10608     -6.795433
   3.14967     -6.525342
   3.19327     -6.256180
   3.23686     -5.989016
   3.28046     -5.856483
   3.32405     -6.052826
   3.36765     -6.238321
   3.41124     -5.998619
   3.45484     -5.682732
   3.49843     -5.370879
   3.54203     -5.065124
   3.58562     -4.767858
   3.62922     -4.481798
   3.67281     -4.210051
   3.71641     -3.956111
   3.76000     -3.723820
   3.80360     -3.517274
   3.84719     -3.340674
   3.89079     -3.198201
   3.93438     -3.093782
   3.97798     -3.031557
   4.02157     -3.013092
 
# Band-Index    4
   4.02157     -3.000250
   3.97798     -3.014923
   3.93438     -3.051331
   3.89079     -3.108793
   3.84719     -3.187958
   3.80360     -3.288353
   3.76000     -3.409148
   3.71641     -3.549325
   3.67281     -3.707716
   3.62922     -3.883034
   3.58562     -4.073918
   3.54203     -4.278945
   3.49843     -4.496659
   3.45484     -4.725595
   3.41124     -4.964297
   3.36765     -5.211344
   3.32405     -5.465360
   3.28046     -5.725005
   3.23686     -5.649581
   3.19327     -5.432397
   3.14967     -5.205272
   3.10608     -4.968582
   3.06248     -4.722763
   3.01889     -4.468290
   2.97529     -4.205722
   2.93170     -3.935673
   2.88810     -3.658852
   2.84451     -3.376057
   2.80091     -3.088188
   2.75732     -2.796265
   2.71372     -2.501436
   2.67013     -2.204998
   2.62653     -1.908394
   2.58294     -1.613228
   2.53934     -1.321264
   2.49575     -1.034419
   2.45215     -0.754757
   2.40856     -0.484472
   2.36496     -0.226102
   2.32137     -0.006491
   2.32137     -0.006491
   2.29953     -0.121369
   2.27770     -0.236309
   2.25587     -0.348581
   2.23403     -0.458027
   2.21220     -0.564594
   2.19037     -0.668257
   2.16853     -0.768989
   2.14670     -0.866774
   2.12487     -0.961593
   2.10303     -1.053434
   2.08120     -1.142278
   2.05937     -1.228115
   2.03753     -1.310929
   2.01570     -1.390709
   1.99387     -1.467444
   1.97203     -1.541123
   1.95020     -1.611734
   1.92837     -1.679272
   1.90653     -1.743727
   1.88470     -1.805087
   1.86287     -1.863343
   1.84103     -1.918492
   1.81920     -1.970526
   1.79737     -2.019439
   1.77553     -2.065224
   1.75370     -2.107873
   1.73187     -2.147386
   1.71003     -2.183753
   1.68820     -2.216974
   1.66637     -2.247042
   1.64453     -2.273957
   1.62270     -2.297709
   1.60087     -2.318300
   1.57903     -2.335728
   1.55720     -2.349991
   1.53537     -2.361082
   1.51353     -2.369006
   1.49170     -2.373761
   1.46987     -2.375345
   1.46987     -2.375345
   1.43218     -2.400628
   1.39449     -2.474158
   1.35680     -2.589800
   1.31911     -2.739494
   1.28142     -2.915050
   1.24373     -3.109226
   1.20604     -3.316094
   1.16836     -3.530991
   1.13067     -3.750332
   1.09298     -3.971368
   1.05529     -4.191973
   1.01760     -4.410511
   0.97991     -4.625706
   0.94222     -4.836543
   0.90453     -5.042210
   0.86684     -5.242042
   0.82916     -5.301396
   0.79147     -5.182418
   0.75378     -5.059006
   0.71609     -4.931667
   0.67840     -4.800967
   0.64071     -4.667547
   0.60302     -4.532115
   0.56533     -4.395470
   0.52764     -4.258506
   0.48996     -4.122202
   0.45227     -3.987646
   0.41458     -3.856013
   0.37689     -3.728597
   0.33920     -3.606761
   0.30151     -3.491979
   0.26382     -3.385759
   0.22613     -3.289631
   0.18844     -3.205114
   0.15076     -3.133642
   0.11307     -3.076500
   0.07538     -3.034742
   0.03769     -3.009105
   0.00000     -3.000250
 
# Band-Index    5
   0.00000      3.282089
   0.03769      3.287348
   0.07538      3.303126
   0.11307      3.329424
   0.15076      3.366244
   0.18844      3.413589
   0.22613      3.471460
   0.26382      3.539858
   0.30151      3.618782
   0.33920      3.708230
   0.37689      3.808197
   0.41458      3.918678
   0.45227      4.039663
   0.48996      4.171144
   0.52764      4.313106
   0.56533      4.465535
   0.60302      4.628411
   0.64071      4.801714
   0.67840      4.985417
   0.71609      5.179486
   0.75378      5.383877
   0.79147      5.598537
   0.82916      5.823386
   0.86684      5.977895
   0.90453      5.632034
   0.94222      5.279667
   0.97991      4.926822
   1.01760      4.576417
   1.05529      4.230672
   1.09298      3.891730
   1.13067      3.561903
   1.16836      3.243867
   1.20604      2.940846
   1.24373      2.656833
   1.28142      2.396826
   1.31911      2.167036
   1.35680      1.974932
   1.39449      1.828876
   1.43218      1.737049
   1.46987      1.705657
   1.46987      1.705657
   1.49170      1.705315
   1.51353      1.704281
   1.53537      1.702534
   1.55720      1.700035
   1.57903      1.696732
   1.60087      1.692557
   1.62270      1.687426
   1.64453      1.681244
   1.66637      1.673895
   1.68820      1.665254
   1.71003      1.655178
   1.73187      1.643513
   1.75370      1.630088
   1.77553      1.614723
   1.79737      1.597223
   1.81920      1.577385
   1.84103      1.554996
   1.86287      1.529834
   1.88470      1.501674
   1.90653      1.470288
   1.92837      1.435448
   1.95020      1.396927
   1.97203      1.354508
   1.99387      1.307982
   2.01570      1.257152
   2.03753      1.201841
   2.05937      1.141893
   2.08120      1.077176
   2.10303      1.007585
   2.12487      0.933047
   2.14670      0.853522
   2.16853      0.769002
   2.19037      0.679514
   2.21220      0.585123
   2.23403      0.485927
   2.25587      0.382064
   2.27770      0.273720
   2.29953      0.161215
   2.32137      0.047462
   2.32137      0.047462
   2.36496      0.265258
   2.40856      0.519350
   2.45215      0.784788
   2.49575      1.060964
   2.53934      1.347542
   2.58294      1.644216
   2.62653      1.950664
   2.67013      2.266532
   2.71372      2.591435
   2.75732      2.924945
   2.80091      3.266593
   2.84451      3.615851
   2.88810      3.972139
   2.93170      4.334810
   2.97529      4.703143
   3.01889      5.076338
   3.06248      5.453510
   3.10608      5.833670
   3.14967      6.095605
   3.19327      5.822078
   3.23686      5.562337
   3.28046      5.316444
   3.32405      5.084450
   3.36765      4.866399
   3.41124      4.662326
   3.45484      4.472261
   3.49843      4.296229
   3.54203      4.134251
   3.58562      3.986340
   3.62922      3.852509
   3.67281      3.732767
   3.71641      3.627117
   3.76000      3.535560
   3.80360      3.458098
   3.84719      3.394727
   3.89079      3.345445
   3.93438      3.310246
   3.97798      3.289128
   4.02157      3.282089
 
# Band-Index    6
   4.02157      4.081105
   3.97798      4.088239
   3.93438      4.109639
   3.89079      4.145303
   3.84719      4.195226
   3.80360      4.259400
   3.76000      4.337815
   3.71641      4.430460
   3.67281      4.537318
   3.62922      4.658370
   3.58562      4.793594
   3.54203      4.942960
   3.49843      5.106435
   3.45484      5.283977
   3.41124      5.475535
   3.36765      5.681045
   3.32405      5.900428
   3.28046      6.133583
   3.23686      6.380362
   3.19327      6.597316
   3.14967      6.215701
   3.10608      6.382843
   3.06248      6.683700
   3.01889      6.998067
   2.97529      7.325805
   2.93170      7.666739
   2.88810      8.020649
   2.84451      8.387246
   2.80091      8.766151
   2.75732      9.156851
   2.71372      9.558638
   2.67013      9.970499
   2.62653     10.390942
   2.58294     10.751820
   2.53934     10.781038
   2.49575     10.762307
   2.45215     10.723513
   2.40856     10.683559
   2.36496     10.654376
   2.32137     10.643476
   2.32137     10.643476
   2.29953     10.646514
   2.27770     10.655778
   2.25587     10.671527
   2.23403     10.693915
   2.21220     10.722995
   2.19037     10.758717
   2.16853     10.800932
   2.14670     10.849382
   2.12487     10.903702
   2.10303     10.963415
   2.08120     11.027931
   2.05937     11.096532
   2.03753     11.168392
   2.01570     11.242564
   1.99387     11.098836
   1.97203     10.866617
   1.95020     10.634806
   1.92837     10.404756
   1.90653     10.177621
   1.88470      9.954417
   1.86287      9.736101
   1.84103      9.523530
   1.81920      9.317540
   1.79737      9.118935
   1.77553      8.928486
   1.75370      8.746961
   1.73187      8.575106
   1.71003      8.413648
   1.68820      8.263308
   1.66637      8.124782
   1.64453      7.998736
   1.62270      7.885813
   1.60087      7.786614
   1.57903      7.701670
   1.55720      7.631467
   1.53537      7.576419
   1.51353      7.536855
   1.49170      7.513019
   1.46987      7.505056
   1.46987      7.505056
   1.43218      7.506942
   1.39449      7.512598
   1.35680      7.521955
   1.31911      7.534885
   1.28142      7.551176
   1.24373      7.570405
   1.20604      7.591749
   1.16836      7.613055
   1.13067      7.625930
   1.09298      7.575545
   1.05529      7.359664
   1.01760      7.090666
   0.97991      6.820649
   0.94222      6.557474
   0.90453      6.303118
   0.86684      6.058309
   0.82916      6.288421
   0.79147      6.355030
   0.75378      6.184145
   0.71609      5.989235
   0.67840      5.797926
   0.64071      5.614726
   0.60302      5.440961
   0.56533      5.277163
   0.52764      5.123591
   0.48996      4.980388
   0.45227      4.847640
   0.41458      4.725404
   0.37689      4.613721
   0.33920      4.512617
   0.30151      4.422116
   0.26382      4.342232
   0.22613      4.272978
   0.18844      4.214364
   0.15076      4.166398
   0.11307      4.129085
   0.07538      4.102431
   0.03769      4.086437
   0.00000      4.081105
 
# Band-Index    7
   0.00000      4.443618
   0.03769      4.449013
   0.07538      4.465197
   0.11307      4.492171
   0.15076      4.529936
   0.18844      4.578491
   0.22613      4.637838
   0.26382      4.707976
   0.30151      4.788905
   0.33920      4.880626
   0.37689      4.983138
   0.41458      5.096441
   0.45227      5.220533
   0.48996      5.355413
   0.52764      5.501079
   0.56533      5.657529
   0.60302      5.824759
   0.64071      6.002763
   0.67840      6.191535
   0.71609      6.391063
   0.75378      6.601325
   0.79147      6.797971
   0.82916      6.740894
   0.86684      6.933560
   0.90453      7.170389
   0.94222      7.424403
   0.97991      7.691130
   1.01760      7.798582
   1.05529      7.777678
   1.09298      7.821801
   1.13067      8.043935
   1.16836      8.342106
   1.20604      8.661640
   1.24373      8.994185
   1.28142      9.337554
   1.31911      9.690785
   1.35680     10.053192
   1.39449     10.423906
   1.43218     10.800471
   1.46987     11.117228
   1.46987     11.117228
   1.49170     11.118756
   1.51353     11.123337
   1.53537     11.130968
   1.55720     11.141642
   1.57903     11.155348
   1.60087     11.172076
   1.62270     11.191809
   1.64453     11.214529
   1.66637     11.240214
   1.68820     11.268837
   1.71003     11.300368
   1.73187     11.334771
   1.75370     11.372008
   1.77553     11.412030
   1.79737     11.454785
   1.81920     11.500214
   1.84103     11.548248
   1.86287     11.598813
   1.88470     11.651813
   1.90653     11.608621
   1.92837     11.540071
   1.95020     11.467969
   1.97203     11.393531
   1.99387     11.317995
   2.01570     11.329778
   2.03753     11.557342
   2.05937     11.778613
   2.08120     11.989359
   2.10303     12.182892
   2.12487     12.338094
   2.14670     12.417674
